============================================
 K, RHO(K),THBAR(K),PBAR(K),PIBAR(K),QVBAR(K)
 ============================================
  1       1.197     293.501  102000.000       1.006   0.100E-01
  2       1.191     293.566  101414.555       1.004   0.996E-02
  3       1.181     293.697  100251.219       1.001   0.988E-02
  4       1.171     293.828   99097.898       0.997   0.980E-02
  5       1.161     293.960   97954.547       0.994   0.972E-02
  6       1.151     294.092   96821.094       0.991   0.963E-02
  7       1.141     294.225   95697.492       0.988   0.955E-02
  8       1.131     294.358   94583.680       0.984   0.947E-02
  9       1.121     294.492   93479.609       0.981   0.939E-02
 10       1.111     294.627   92385.211       0.978   0.931E-02
 11       1.101     294.761   91300.438       0.974   0.923E-02
 12       1.092     294.897   90225.227       0.971   0.915E-02
 13       1.082     295.033   89159.531       0.968   0.907E-02
 14       1.072     295.169   88103.281       0.964   0.898E-02
 15       1.063     295.306   87056.438       0.961   0.890E-02
 16       1.053     295.443   86018.914       0.958   0.881E-02
 17       1.044     295.581   84990.594       0.955   0.848E-02
 18       1.035     295.720   83971.383       0.951   0.816E-02
 19       1.026     295.859   82961.234       0.948   0.784E-02
 20       1.016     296.156   81960.367       0.945   0.759E-02
 21       0.994     300.189   80974.945       0.941   0.664E-02
 22       0.974     304.236   80010.203       0.938   0.485E-02
 23       0.954     308.297   79065.281       0.935   0.306E-02
 24       0.934     312.374   78139.594       0.932   0.127E-02
 25       0.925     313.124   77228.164       0.929   0.979E-03
 26       0.916     313.282   76325.570       0.926   0.954E-03
 27       0.908     313.440   75430.977       0.923   0.929E-03
 28       0.900     313.598   74544.328       0.919   0.904E-03
 29       0.892     313.758   73665.578       0.916   0.879E-03
 30       0.884     313.917   72794.680       0.913   0.854E-03
 31       0.876     314.078   71931.578       0.910   0.829E-03
 32       0.868     314.238   71076.242       0.907   0.804E-03
 33       0.860     314.400   70228.609       0.904   0.779E-03
 34       0.853     314.562   69388.648       0.901   0.754E-03
 35       0.845     314.724   68556.297       0.898   0.729E-03
 36       0.837     314.887   67731.508       0.895   0.704E-03
 37       0.830     315.051   66914.250       0.892   0.679E-03
 38       0.822     315.215   66104.461       0.888   0.654E-03
 39       0.814     315.380   65302.105       0.885   0.629E-03
 40       0.807     315.546   64507.129       0.882   0.604E-03
 41       0.798     315.767   63611.473       0.879   0.576E-03
 42       0.791     315.658   62751.609       0.875   0.541E-03
 43       0.779     315.941   61451.402       0.870   0.499E-03
 44       0.764     316.273   59964.656       0.864   0.450E-03
 45       0.748     316.654   58302.602       0.857   0.394E-03
 46       0.730     317.086   56477.766       0.849   0.331E-03
 47       0.711     317.570   54503.840       0.841   0.261E-03
 48       0.690     318.108   52395.574       0.831   0.184E-03
 49       0.668     318.701   50168.648       0.821   0.101E-03
 50       0.644     319.528   47840.191       0.810   0.903E-04
 51       0.619     320.432   45428.090       0.798   0.797E-04
 52       0.593     321.415   42950.047       0.785   0.684E-04
 53       0.566     322.481   40424.008       0.772   0.564E-04
 54       0.538     323.634   37868.027       0.758   0.436E-04
 55       0.510     324.878   35300.066       0.743   0.301E-04
 56       0.481     326.218   32737.811       0.727   0.158E-04
 57       0.452     327.660   30198.521       0.710   0.775E-06
 58       0.421     331.098   27705.701       0.693   0.000E+00
 59       0.390     334.896   25281.939       0.675   0.000E+00
 60       0.359     338.973   22941.297       0.657   0.000E+00
 61       0.329     343.351   20695.953       0.638   0.000E+00
